MUESTRA:	Ni SDZ DMF
LongRx:	1.5405
CPS:	500
Intervalo:	5-70
Fecha:	2017-04-19 19:12:30

2Theta	INTENSIDAD	d
(ยบ)	(u.a.)	(Armstrong)
70.00	301.00	1.3429
69.98	307.00	1.3432
69.96	306.00	1.3436
69.94	306.00	1.3439
69.92	303.00	1.3442
69.90	317.00	1.3446
69.88	307.00	1.3449
69.86	289.00	1.3452
69.84	293.00	1.3456
69.82	290.00	1.3459
69.80	294.00	1.3462
69.78	298.00	1.3466
69.76	317.00	1.3469
69.74	321.00	1.3473
69.72	333.00	1.3476
69.70	319.00	1.3479
69.68	322.00	1.3483
69.66	320.00	1.3486
69.64	316.00	1.3489
69.62	326.00	1.3493
69.60	325.00	1.3496
69.58	325.00	1.3500
69.56	312.00	1.3503
69.54	323.00	1.3506
69.52	342.00	1.3510
69.50	335.00	1.3513
69.48	317.00	1.3517
69.46	336.00	1.3520
69.44	331.00	1.3523
69.42	323.00	1.3527
69.40	326.00	1.3530
69.38	323.00	1.3534
69.36	329.00	1.3537
69.34	313.00	1.3541
69.32	321.00	1.3544
69.30	324.00	1.3547
69.28	339.00	1.3551
69.26	342.00	1.3554
69.24	317.00	1.3558
69.22	333.00	1.3561
69.20	337.00	1.3564
69.18	322.00	1.3568
69.16	328.00	1.3571
69.14	326.00	1.3575
69.12	333.00	1.3578
69.10	331.00	1.3582
69.08	325.00	1.3585
69.06	300.00	1.3589
69.04	317.00	1.3592
69.02	320.00	1.3595
69.00	307.00	1.3599
68.98	312.00	1.3602
68.96	317.00	1.3606
68.94	320.00	1.3609
68.92	323.00	1.3613
68.90	315.00	1.3616
68.88	299.00	1.3620
68.86	303.00	1.3623
68.84	303.00	1.3627
68.82	309.00	1.3630
68.80	310.00	1.3634
68.78	302.00	1.3637
68.76	301.00	1.3640
68.74	308.00	1.3644
68.72	297.00	1.3647
68.70	306.00	1.3651
68.68	316.00	1.3654
68.66	327.00	1.3658
68.64	314.00	1.3661
68.62	327.00	1.3665
68.60	314.00	1.3668
68.58	328.00	1.3672
68.56	320.00	1.3675
68.54	299.00	1.3679
68.52	310.00	1.3682
68.50	327.00	1.3686
68.48	336.00	1.3689
68.46	336.00	1.3693
68.44	328.00	1.3696
68.42	334.00	1.3700
68.40	339.00	1.3703
68.38	325.00	1.3707
68.36	319.00	1.3711
68.34	304.00	1.3714
68.32	310.00	1.3718
68.30	310.00	1.3721
68.28	317.00	1.3725
68.26	324.00	1.3728
68.24	335.00	1.3732
68.22	342.00	1.3735
68.20	325.00	1.3739
68.18	311.00	1.3742
68.16	327.00	1.3746
68.14	324.00	1.3749
68.12	314.00	1.3753
68.10	319.00	1.3757
68.08	326.00	1.3760
68.06	319.00	1.3764
68.04	325.00	1.3767
68.02	315.00	1.3771
68.00	343.00	1.3774
67.98	330.00	1.3778
67.96	348.00	1.3781
67.94	323.00	1.3785
67.92	321.00	1.3789
67.90	308.00	1.3792
67.88	304.00	1.3796
67.86	317.00	1.3799
67.84	315.00	1.3803
67.82	319.00	1.3806
67.80	318.00	1.3810
67.78	313.00	1.3814
67.76	313.00	1.3817
67.74	309.00	1.3821
67.72	317.00	1.3824
67.70	320.00	1.3828
67.68	309.00	1.3832
67.66	337.00	1.3835
67.64	320.00	1.3839
67.62	313.00	1.3842
67.60	301.00	1.3846
67.58	309.00	1.3850
67.56	306.00	1.3853
67.54	301.00	1.3857
67.52	320.00	1.3861
67.50	308.00	1.3864
67.48	307.00	1.3868
67.46	309.00	1.3871
67.44	314.00	1.3875
67.42	313.00	1.3879
67.40	313.00	1.3882
67.38	327.00	1.3886
67.36	332.00	1.3890
67.34	325.00	1.3893
67.32	321.00	1.3897
67.30	318.00	1.3900
67.28	323.00	1.3904
67.26	329.00	1.3908
67.24	314.00	1.3911
67.22	317.00	1.3915
67.20	322.00	1.3919
67.18	305.00	1.3922
67.16	326.00	1.3926
67.14	318.00	1.3930
67.12	326.00	1.3933
67.10	330.00	1.3937
67.08	336.00	1.3941
67.06	321.00	1.3944
67.04	341.00	1.3948
67.02	349.00	1.3952
67.00	355.00	1.3955
66.98	371.00	1.3959
66.96	348.00	1.3963
66.94	344.00	1.3966
66.92	328.00	1.3970
66.90	315.00	1.3974
66.88	322.00	1.3978
66.86	323.00	1.3981
66.84	319.00	1.3985
66.82	328.00	1.3989
66.80	326.00	1.3992
66.78	340.00	1.3996
66.76	333.00	1.4000
66.74	339.00	1.4003
66.72	328.00	1.4007
66.70	335.00	1.4011
66.68	346.00	1.4015
66.66	341.00	1.4018
66.64	350.00	1.4022
66.62	358.00	1.4026
66.60	334.00	1.4029
66.58	345.00	1.4033
66.56	342.00	1.4037
66.54	336.00	1.4041
66.52	337.00	1.4044
66.50	333.00	1.4048
66.48	319.00	1.4052
66.46	317.00	1.4056
66.44	322.00	1.4059
66.42	345.00	1.4063
66.40	349.00	1.4067
66.38	354.00	1.4071
66.36	347.00	1.4074
66.34	343.00	1.4078
66.32	340.00	1.4082
66.30	341.00	1.4086
66.28	334.00	1.4089
66.26	328.00	1.4093
66.24	331.00	1.4097
66.22	342.00	1.4101
66.20	336.00	1.4105
66.18	346.00	1.4108
66.16	355.00	1.4112
66.14	343.00	1.4116
66.12	346.00	1.4120
66.10	346.00	1.4123
66.08	351.00	1.4127
66.06	360.00	1.4131
66.04	352.00	1.4135
66.02	337.00	1.4139
66.00	338.00	1.4142
65.98	336.00	1.4146
65.96	328.00	1.4150
65.94	331.00	1.4154
65.92	336.00	1.4158
65.90	335.00	1.4161
65.88	340.00	1.4165
65.86	343.00	1.4169
65.84	331.00	1.4173
65.82	351.00	1.4177
65.80	340.00	1.4181
65.78	333.00	1.4184
65.76	305.00	1.4188
65.74	307.00	1.4192
65.72	318.00	1.4196
65.70	323.00	1.4200
65.68	319.00	1.4204
65.66	315.00	1.4207
65.64	327.00	1.4211
65.62	322.00	1.4215
65.60	336.00	1.4219
65.58	339.00	1.4223
65.56	309.00	1.4227
65.54	314.00	1.4230
65.52	321.00	1.4234
65.50	313.00	1.4238
65.48	340.00	1.4242
65.46	337.00	1.4246
65.44	317.00	1.4250
65.42	340.00	1.4254
65.40	345.00	1.4258
65.38	343.00	1.4261
65.36	334.00	1.4265
65.34	337.00	1.4269
65.32	333.00	1.4273
65.30	335.00	1.4277
65.28	344.00	1.4281
65.26	344.00	1.4285
65.24	344.00	1.4289
65.22	340.00	1.4293
65.20	341.00	1.4296
65.18	339.00	1.4300
65.16	337.00	1.4304
65.14	329.00	1.4308
65.12	324.00	1.4312
65.10	326.00	1.4316
65.08	326.00	1.4320
65.06	345.00	1.4324
65.04	349.00	1.4328
65.02	344.00	1.4332
65.00	337.00	1.4336
64.98	347.00	1.4340
64.96	345.00	1.4343
64.94	348.00	1.4347
64.92	341.00	1.4351
64.90	330.00	1.4355
64.88	347.00	1.4359
64.86	358.00	1.4363
64.84	359.00	1.4367
64.82	352.00	1.4371
64.80	353.00	1.4375
64.78	345.00	1.4379
64.76	351.00	1.4383
64.74	339.00	1.4387
64.72	337.00	1.4391
64.70	323.00	1.4395
64.68	326.00	1.4399
64.66	320.00	1.4403
64.64	344.00	1.4407
64.62	340.00	1.4411
64.60	330.00	1.4415
64.58	324.00	1.4419
64.56	313.00	1.4423
64.54	337.00	1.4427
64.52	346.00	1.4431
64.50	346.00	1.4435
64.48	364.00	1.4439
64.46	370.00	1.4443
64.44	362.00	1.4447
64.42	348.00	1.4451
64.40	354.00	1.4455
64.38	334.00	1.4459
64.36	336.00	1.4463
64.34	346.00	1.4467
64.32	350.00	1.4471
64.30	369.00	1.4475
64.28	365.00	1.4479
64.26	370.00	1.4483
64.24	362.00	1.4487
64.22	344.00	1.4491
64.20	348.00	1.4495
64.18	350.00	1.4499
64.16	341.00	1.4503
64.14	340.00	1.4507
64.12	323.00	1.4511
64.10	311.00	1.4515
64.08	315.00	1.4519
64.06	327.00	1.4523
64.04	324.00	1.4527
64.02	328.00	1.4531
64.00	335.00	1.4535
63.98	349.00	1.4539
63.96	349.00	1.4543
63.94	358.00	1.4547
63.92	353.00	1.4551
63.90	358.00	1.4556
63.88	348.00	1.4560
63.86	341.00	1.4564
63.84	358.00	1.4568
63.82	358.00	1.4572
63.80	350.00	1.4576
63.78	364.00	1.4580
63.76	349.00	1.4584
63.74	357.00	1.4588
63.72	352.00	1.4592
63.70	341.00	1.4596
63.68	349.00	1.4601
63.66	346.00	1.4605
63.64	338.00	1.4609
63.62	360.00	1.4613
63.60	366.00	1.4617
63.58	354.00	1.4621
63.56	331.00	1.4625
63.54	336.00	1.4629
63.52	346.00	1.4633
63.50	350.00	1.4638
63.48	346.00	1.4642
63.46	329.00	1.4646
63.44	351.00	1.4650
63.42	360.00	1.4654
63.40	376.00	1.4658
63.38	372.00	1.4662
63.36	351.00	1.4667
63.34	344.00	1.4671
63.32	335.00	1.4675
63.30	347.00	1.4679
63.28	349.00	1.4683
63.26	355.00	1.4687
63.24	356.00	1.4691
63.22	340.00	1.4696
63.20	355.00	1.4700
63.18	344.00	1.4704
63.16	344.00	1.4708
63.14	336.00	1.4712
63.12	319.00	1.4717
63.10	349.00	1.4721
63.08	362.00	1.4725
63.06	352.00	1.4729
63.04	338.00	1.4733
63.02	338.00	1.4737
63.00	326.00	1.4742
62.98	343.00	1.4746
62.96	312.00	1.4750
62.94	321.00	1.4754
62.92	336.00	1.4758
62.90	347.00	1.4763
62.88	354.00	1.4767
62.86	349.00	1.4771
62.84	355.00	1.4775
62.82	341.00	1.4780
62.80	328.00	1.4784
62.78	343.00	1.4788
62.76	339.00	1.4792
62.74	334.00	1.4796
62.72	332.00	1.4801
62.70	325.00	1.4805
62.68	340.00	1.4809
62.66	353.00	1.4813
62.64	367.00	1.4818
62.62	366.00	1.4822
62.60	366.00	1.4826
62.58	353.00	1.4830
62.56	355.00	1.4835
62.54	363.00	1.4839
62.52	367.00	1.4843
62.50	375.00	1.4848
62.48	350.00	1.4852
62.46	343.00	1.4856
62.44	352.00	1.4860
62.42	356.00	1.4865
62.40	344.00	1.4869
62.38	339.00	1.4873
62.36	338.00	1.4877
62.34	341.00	1.4882
62.32	343.00	1.4886
62.30	343.00	1.4890
62.28	345.00	1.4895
62.26	346.00	1.4899
62.24	351.00	1.4903
62.22	352.00	1.4908
62.20	351.00	1.4912
62.18	368.00	1.4916
62.16	363.00	1.4921
62.14	357.00	1.4925
62.12	347.00	1.4929
62.10	350.00	1.4934
62.08	353.00	1.4938
62.06	356.00	1.4942
62.04	363.00	1.4947
62.02	381.00	1.4951
62.00	381.00	1.4955
61.98	379.00	1.4960
61.96	385.00	1.4964
61.94	368.00	1.4968
61.92	350.00	1.4973
61.90	346.00	1.4977
61.88	345.00	1.4981
61.86	344.00	1.4986
61.84	368.00	1.4990
61.82	353.00	1.4994
61.80	345.00	1.4999
61.78	343.00	1.5003
61.76	369.00	1.5008
61.74	344.00	1.5012
61.72	349.00	1.5016
61.70	354.00	1.5021
61.68	339.00	1.5025
61.66	342.00	1.5029
61.64	344.00	1.5034
61.62	361.00	1.5038
61.60	360.00	1.5043
61.58	349.00	1.5047
61.56	351.00	1.5052
61.54	349.00	1.5056
61.52	359.00	1.5060
61.50	376.00	1.5065
61.48	370.00	1.5069
61.46	377.00	1.5074
61.44	352.00	1.5078
61.42	343.00	1.5082
61.40	353.00	1.5087
61.38	364.00	1.5091
61.36	363.00	1.5096
61.34	373.00	1.5100
61.32	368.00	1.5105
61.30	357.00	1.5109
61.28	360.00	1.5114
61.26	363.00	1.5118
61.24	362.00	1.5122
61.22	355.00	1.5127
61.20	363.00	1.5131
61.18	356.00	1.5136
61.16	340.00	1.5140
61.14	351.00	1.5145
61.12	357.00	1.5149
61.10	361.00	1.5154
61.08	353.00	1.5158
61.06	343.00	1.5163
61.04	359.00	1.5167
61.02	359.00	1.5172
61.00	355.00	1.5176
60.98	357.00	1.5181
60.96	358.00	1.5185
60.94	372.00	1.5190
60.92	373.00	1.5194
60.90	371.00	1.5199
60.88	359.00	1.5203
60.86	372.00	1.5208
60.84	381.00	1.5212
60.82	375.00	1.5217
60.80	361.00	1.5221
60.78	348.00	1.5226
60.76	343.00	1.5230
60.74	354.00	1.5235
60.72	364.00	1.5239
60.70	361.00	1.5244
60.68	353.00	1.5249
60.66	381.00	1.5253
60.64	378.00	1.5258
60.62	377.00	1.5262
60.60	377.00	1.5267
60.58	366.00	1.5271
60.56	388.00	1.5276
60.54	390.00	1.5280
60.52	369.00	1.5285
60.50	369.00	1.5290
60.48	353.00	1.5294
60.46	358.00	1.5299
60.44	358.00	1.5303
60.42	367.00	1.5308
60.40	387.00	1.5313
60.38	389.00	1.5317
60.36	384.00	1.5322
60.34	395.00	1.5326
60.32	378.00	1.5331
60.30	388.00	1.5336
60.28	383.00	1.5340
60.26	370.00	1.5345
60.24	364.00	1.5349
60.22	358.00	1.5354
60.20	349.00	1.5359
60.18	351.00	1.5363
60.16	363.00	1.5368
60.14	363.00	1.5372
60.12	388.00	1.5377
60.10	387.00	1.5382
60.08	388.00	1.5386
60.06	369.00	1.5391
60.04	369.00	1.5396
60.02	364.00	1.5400
60.00	381.00	1.5405
59.98	382.00	1.5410
59.96	373.00	1.5414
59.94	369.00	1.5419
59.92	382.00	1.5424
59.90	370.00	1.5428
59.88	385.00	1.5433
59.86	389.00	1.5438
59.84	398.00	1.5442
59.82	388.00	1.5447
59.80	375.00	1.5452
59.78	376.00	1.5456
59.76	377.00	1.5461
59.74	354.00	1.5466
59.72	364.00	1.5471
59.70	356.00	1.5475
59.68	357.00	1.5480
59.66	367.00	1.5485
59.64	354.00	1.5489
59.62	359.00	1.5494
59.60	345.00	1.5499
59.58	368.00	1.5504
59.56	379.00	1.5508
59.54	362.00	1.5513
59.52	377.00	1.5518
59.50	380.00	1.5522
59.48	368.00	1.5527
59.46	384.00	1.5532
59.44	405.00	1.5537
59.42	386.00	1.5541
59.40	372.00	1.5546
59.38	377.00	1.5551
59.36	375.00	1.5556
59.34	360.00	1.5560
59.32	356.00	1.5565
59.30	351.00	1.5570
59.28	356.00	1.5575
59.26	358.00	1.5580
59.24	356.00	1.5584
59.22	373.00	1.5589
59.20	381.00	1.5594
59.18	376.00	1.5599
59.16	366.00	1.5604
59.14	356.00	1.5608
59.12	376.00	1.5613
59.10	381.00	1.5618
59.08	382.00	1.5623
59.06	386.00	1.5628
59.04	383.00	1.5632
59.02	409.00	1.5637
59.00	390.00	1.5642
58.98	376.00	1.5647
58.96	368.00	1.5652
58.94	380.00	1.5657
58.92	379.00	1.5661
58.90	384.00	1.5666
58.88	383.00	1.5671
58.86	403.00	1.5676
58.84	384.00	1.5681
58.82	387.00	1.5686
58.80	383.00	1.5690
58.78	389.00	1.5695
58.76	396.00	1.5700
58.74	387.00	1.5705
58.72	381.00	1.5710
58.70	393.00	1.5715
58.68	410.00	1.5720
58.66	398.00	1.5725
58.64	411.00	1.5729
58.62	392.00	1.5734
58.60	409.00	1.5739
58.58	386.00	1.5744
58.56	399.00	1.5749
58.54	406.00	1.5754
58.52	397.00	1.5759
58.50	386.00	1.5764
58.48	386.00	1.5769
58.46	376.00	1.5774
58.44	362.00	1.5778
58.42	366.00	1.5783
58.40	381.00	1.5788
58.38	381.00	1.5793
58.36	372.00	1.5798
58.34	387.00	1.5803
58.32	383.00	1.5808
58.30	379.00	1.5813
58.28	385.00	1.5818
58.26	374.00	1.5823
58.24	365.00	1.5828
58.22	362.00	1.5833
58.20	374.00	1.5838
58.18	400.00	1.5843
58.16	398.00	1.5848
58.14	383.00	1.5853
58.12	372.00	1.5858
58.10	372.00	1.5863
58.08	373.00	1.5868
58.06	371.00	1.5873
58.04	397.00	1.5878
58.02	388.00	1.5883
58.00	386.00	1.5888
57.98	387.00	1.5893
57.96	379.00	1.5898
57.94	383.00	1.5903
57.92	375.00	1.5908
57.90	347.00	1.5913
57.88	386.00	1.5918
57.86	403.00	1.5923
57.84	386.00	1.5928
57.82	405.00	1.5933
57.80	414.00	1.5938
57.78	412.00	1.5943
57.76	400.00	1.5948
57.74	388.00	1.5953
57.72	384.00	1.5958
57.70	381.00	1.5963
57.68	388.00	1.5968
57.66	377.00	1.5973
57.64	362.00	1.5978
57.62	372.00	1.5983
57.60	388.00	1.5988
57.58	410.00	1.5994
57.56	397.00	1.5999
57.54	416.00	1.6004
57.52	390.00	1.6009
57.50	389.00	1.6014
57.48	402.00	1.6019
57.46	411.00	1.6024
57.44	413.00	1.6029
57.42	402.00	1.6034
57.40	406.00	1.6039
57.38	429.00	1.6045
57.36	420.00	1.6050
57.34	411.00	1.6055
57.32	385.00	1.6060
57.30	393.00	1.6065
57.28	388.00	1.6070
57.26	393.00	1.6075
57.24	400.00	1.6080
57.22	397.00	1.6086
57.20	384.00	1.6091
57.18	382.00	1.6096
57.16	408.00	1.6101
57.14	408.00	1.6106
57.12	395.00	1.6111
57.10	388.00	1.6117
57.08	390.00	1.6122
57.06	409.00	1.6127
57.04	406.00	1.6132
57.02	399.00	1.6137
57.00	403.00	1.6142
56.98	387.00	1.6148
56.96	385.00	1.6153
56.94	403.00	1.6158
56.92	412.00	1.6163
56.90	403.00	1.6168
56.88	395.00	1.6174
56.86	413.00	1.6179
56.84	387.00	1.6184
56.82	391.00	1.6189
56.80	405.00	1.6195
56.78	397.00	1.6200
56.76	393.00	1.6205
56.74	402.00	1.6210
56.72	414.00	1.6215
56.70	414.00	1.6221
56.68	402.00	1.6226
56.66	406.00	1.6231
56.64	408.00	1.6236
56.62	401.00	1.6242
56.60	400.00	1.6247
56.58	404.00	1.6252
56.56	399.00	1.6258
56.54	387.00	1.6263
56.52	385.00	1.6268
56.50	397.00	1.6273
56.48	405.00	1.6279
56.46	415.00	1.6284
56.44	420.00	1.6289
56.42	409.00	1.6295
56.40	397.00	1.6300
56.38	394.00	1.6305
56.36	377.00	1.6310
56.34	387.00	1.6316
56.32	383.00	1.6321
56.30	391.00	1.6326
56.28	379.00	1.6332
56.26	384.00	1.6337
56.24	399.00	1.6342
56.22	399.00	1.6348
56.20	401.00	1.6353
56.18	407.00	1.6358
56.16	408.00	1.6364
56.14	401.00	1.6369
56.12	390.00	1.6375
56.10	388.00	1.6380
56.08	397.00	1.6385
56.06	404.00	1.6391
56.04	408.00	1.6396
56.02	424.00	1.6401
56.00	417.00	1.6407
55.98	403.00	1.6412
55.96	421.00	1.6418
55.94	415.00	1.6423
55.92	403.00	1.6428
55.90	406.00	1.6434
55.88	402.00	1.6439
55.86	405.00	1.6445
55.84	398.00	1.6450
55.82	407.00	1.6455
55.80	416.00	1.6461
55.78	425.00	1.6466
55.76	404.00	1.6472
55.74	433.00	1.6477
55.72	401.00	1.6483
55.70	413.00	1.6488
55.68	420.00	1.6493
55.66	418.00	1.6499
55.64	410.00	1.6504
55.62	401.00	1.6510
55.60	409.00	1.6515
55.58	402.00	1.6521
55.56	408.00	1.6526
55.54	390.00	1.6532
55.52	404.00	1.6537
55.50	404.00	1.6543
55.48	404.00	1.6548
55.46	417.00	1.6554
55.44	418.00	1.6559
55.42	415.00	1.6565
55.40	402.00	1.6570
55.38	402.00	1.6576
55.36	390.00	1.6581
55.34	385.00	1.6587
55.32	403.00	1.6592
55.30	407.00	1.6598
55.28	393.00	1.6603
55.26	390.00	1.6609
55.24	396.00	1.6614
55.22	396.00	1.6620
55.20	403.00	1.6625
55.18	412.00	1.6631
55.16	407.00	1.6637
55.14	417.00	1.6642
55.12	411.00	1.6648
55.10	414.00	1.6653
55.08	422.00	1.6659
55.06	408.00	1.6664
55.04	400.00	1.6670
55.02	411.00	1.6676
55.00	421.00	1.6681
54.98	419.00	1.6687
54.96	411.00	1.6692
54.94	412.00	1.6698
54.92	395.00	1.6704
54.90	409.00	1.6709
54.88	401.00	1.6715
54.86	418.00	1.6720
54.84	424.00	1.6726
54.82	425.00	1.6732
54.80	414.00	1.6737
54.78	403.00	1.6743
54.76	410.00	1.6749
54.74	413.00	1.6754
54.72	407.00	1.6760
54.70	389.00	1.6766
54.68	400.00	1.6771
54.66	408.00	1.6777
54.64	407.00	1.6783
54.62	420.00	1.6788
54.60	426.00	1.6794
54.58	425.00	1.6800
54.56	411.00	1.6805
54.54	405.00	1.6811
54.52	416.00	1.6817
54.50	417.00	1.6822
54.48	416.00	1.6828
54.46	416.00	1.6834
54.44	434.00	1.6839
54.42	435.00	1.6845
54.40	441.00	1.6851
54.38	437.00	1.6857
54.36	419.00	1.6862
54.34	432.00	1.6868
54.32	426.00	1.6874
54.30	421.00	1.6880
54.28	424.00	1.6885
54.26	441.00	1.6891
54.24	444.00	1.6897
54.22	445.00	1.6903
54.20	421.00	1.6908
54.18	422.00	1.6914
54.16	428.00	1.6920
54.14	423.00	1.6926
54.12	432.00	1.6931
54.10	419.00	1.6937
54.08	417.00	1.6943
54.06	410.00	1.6949
54.04	421.00	1.6955
54.02	418.00	1.6960
54.00	411.00	1.6966
53.98	424.00	1.6972
53.96	433.00	1.6978
53.94	434.00	1.6984
53.92	439.00	1.6989
53.90	418.00	1.6995
53.88	423.00	1.7001
53.86	431.00	1.7007
53.84	419.00	1.7013
53.82	415.00	1.7019
53.80	424.00	1.7025
53.78	419.00	1.7030
53.76	419.00	1.7036
53.74	448.00	1.7042
53.72	433.00	1.7048
53.70	418.00	1.7054
53.68	428.00	1.7060
53.66	413.00	1.7066
53.64	402.00	1.7072
53.62	423.00	1.7077
53.60	423.00	1.7083
53.58	413.00	1.7089
53.56	423.00	1.7095
53.54	434.00	1.7101
53.52	440.00	1.7107
53.50	459.00	1.7113
53.48	454.00	1.7119
53.46	466.00	1.7125
53.44	453.00	1.7131
53.42	438.00	1.7137
53.40	433.00	1.7143
53.38	419.00	1.7149
53.36	421.00	1.7155
53.34	434.00	1.7160
53.32	431.00	1.7166
53.30	443.00	1.7172
53.28	444.00	1.7178
53.26	430.00	1.7184
53.24	422.00	1.7190
53.22	437.00	1.7196
53.20	436.00	1.7202
53.18	437.00	1.7208
53.16	461.00	1.7214
53.14	469.00	1.7220
53.12	452.00	1.7226
53.10	438.00	1.7232
53.08	445.00	1.7238
53.06	435.00	1.7244
53.04	439.00	1.7250
53.02	445.00	1.7256
53.00	430.00	1.7263
52.98	430.00	1.7269
52.96	451.00	1.7275
52.94	462.00	1.7281
52.92	439.00	1.7287
52.90	438.00	1.7293
52.88	426.00	1.7299
52.86	424.00	1.7305
52.84	440.00	1.7311
52.82	452.00	1.7317
52.80	467.00	1.7323
52.78	465.00	1.7329
52.76	451.00	1.7335
52.74	431.00	1.7341
52.72	445.00	1.7348
52.70	428.00	1.7354
52.68	423.00	1.7360
52.66	424.00	1.7366
52.64	426.00	1.7372
52.62	424.00	1.7378
52.60	413.00	1.7384
52.58	422.00	1.7390
52.56	438.00	1.7397
52.54	446.00	1.7403
52.52	447.00	1.7409
52.50	459.00	1.7415
52.48	443.00	1.7421
52.46	458.00	1.7427
52.44	452.00	1.7434
52.42	450.00	1.7440
52.40	432.00	1.7446
52.38	449.00	1.7452
52.36	446.00	1.7458
52.34	455.00	1.7465
52.32	459.00	1.7471
52.30	446.00	1.7477
52.28	431.00	1.7483
52.26	455.00	1.7489
52.24	435.00	1.7496
52.22	451.00	1.7502
52.20	458.00	1.7508
52.18	438.00	1.7514
52.16	426.00	1.7521
52.14	432.00	1.7527
52.12	435.00	1.7533
52.10	452.00	1.7539
52.08	446.00	1.7546
52.06	427.00	1.7552
52.04	438.00	1.7558
52.02	453.00	1.7564
52.00	431.00	1.7571
51.98	458.00	1.7577
51.96	452.00	1.7583
51.94	442.00	1.7590
51.92	444.00	1.7596
51.90	462.00	1.7602
51.88	448.00	1.7609
51.86	450.00	1.7615
51.84	458.00	1.7621
51.82	450.00	1.7628
51.80	428.00	1.7634
51.78	440.00	1.7640
51.76	440.00	1.7647
51.74	447.00	1.7653
51.72	452.00	1.7659
51.70	464.00	1.7666
51.68	446.00	1.7672
51.66	459.00	1.7678
51.64	458.00	1.7685
51.62	472.00	1.7691
51.60	473.00	1.7697
51.58	450.00	1.7704
51.56	457.00	1.7710
51.54	471.00	1.7717
51.52	459.00	1.7723
51.50	450.00	1.7730
51.48	468.00	1.7736
51.46	468.00	1.7742
51.44	477.00	1.7749
51.42	468.00	1.7755
51.40	447.00	1.7762
51.38	446.00	1.7768
51.36	457.00	1.7775
51.34	446.00	1.7781
51.32	461.00	1.7787
51.30	483.00	1.7794
51.28	479.00	1.7800
51.26	482.00	1.7807
51.24	461.00	1.7813
51.22	454.00	1.7820
51.20	454.00	1.7826
51.18	464.00	1.7833
51.16	486.00	1.7839
51.14	488.00	1.7846
51.12	477.00	1.7852
51.10	501.00	1.7859
51.08	505.00	1.7865
51.06	494.00	1.7872
51.04	480.00	1.7878
51.02	463.00	1.7885
51.00	480.00	1.7892
50.98	463.00	1.7898
50.96	459.00	1.7905
50.94	457.00	1.7911
50.92	459.00	1.7918
50.90	465.00	1.7924
50.88	450.00	1.7931
50.86	460.00	1.7937
50.84	472.00	1.7944
50.82	475.00	1.7951
50.80	460.00	1.7957
50.78	479.00	1.7964
50.76	463.00	1.7970
50.74	469.00	1.7977
50.72	479.00	1.7984
50.70	480.00	1.7990
50.68	486.00	1.7997
50.66	473.00	1.8004
50.64	481.00	1.8010
50.62	477.00	1.8017
50.60	478.00	1.8024
50.58	482.00	1.8030
50.56	460.00	1.8037
50.54	468.00	1.8044
50.52	469.00	1.8050
50.50	479.00	1.8057
50.48	476.00	1.8064
50.46	477.00	1.8070
50.44	484.00	1.8077
50.42	486.00	1.8084
50.40	492.00	1.8090
50.38	507.00	1.8097
50.36	493.00	1.8104
50.34	474.00	1.8111
50.32	480.00	1.8117
50.30	476.00	1.8124
50.28	456.00	1.8131
50.26	448.00	1.8137
50.24	459.00	1.8144
50.22	449.00	1.8151
50.20	469.00	1.8158
50.18	474.00	1.8165
50.16	483.00	1.8171
50.14	472.00	1.8178
50.12	471.00	1.8185
50.10	498.00	1.8192
50.08	495.00	1.8198
50.06	479.00	1.8205
50.04	486.00	1.8212
50.02	497.00	1.8219
50.00	488.00	1.8226
49.98	482.00	1.8232
49.96	496.00	1.8239
49.94	495.00	1.8246
49.92	491.00	1.8253
49.90	490.00	1.8260
49.88	478.00	1.8267
49.86	508.00	1.8274
49.84	484.00	1.8280
49.82	472.00	1.8287
49.80	485.00	1.8294
49.78	485.00	1.8301
49.76	487.00	1.8308
49.74	495.00	1.8315
49.72	475.00	1.8322
49.70	479.00	1.8329
49.68	467.00	1.8336
49.66	467.00	1.8342
49.64	483.00	1.8349
49.62	480.00	1.8356
49.60	481.00	1.8363
49.58	475.00	1.8370
49.56	487.00	1.8377
49.54	475.00	1.8384
49.52	458.00	1.8391
49.50	462.00	1.8398
49.48	485.00	1.8405
49.46	485.00	1.8412
49.44	517.00	1.8419
49.42	484.00	1.8426
49.40	485.00	1.8433
49.38	495.00	1.8440
49.36	505.00	1.8447
49.34	501.00	1.8454
49.32	487.00	1.8461
49.30	502.00	1.8468
49.28	490.00	1.8475
49.26	495.00	1.8482
49.24	502.00	1.8489
49.22	494.00	1.8496
49.20	535.00	1.8503
49.18	529.00	1.8510
49.16	513.00	1.8517
49.14	524.00	1.8524
49.12	524.00	1.8531
49.10	489.00	1.8538
49.08	493.00	1.8546
49.06	484.00	1.8553
49.04	487.00	1.8560
49.02	491.00	1.8567
49.00	478.00	1.8574
48.98	508.00	1.8581
48.96	492.00	1.8588
48.94	503.00	1.8595
48.92	495.00	1.8602
48.90	514.00	1.8610
48.88	518.00	1.8617
48.86	513.00	1.8624
48.84	493.00	1.8631
48.82	488.00	1.8638
48.80	487.00	1.8645
48.78	506.00	1.8653
48.76	505.00	1.8660
48.74	502.00	1.8667
48.72	503.00	1.8674
48.70	510.00	1.8681
48.68	514.00	1.8689
48.66	501.00	1.8696
48.64	487.00	1.8703
48.62	492.00	1.8710
48.60	492.00	1.8717
48.58	491.00	1.8725
48.56	494.00	1.8732
48.54	479.00	1.8739
48.52	511.00	1.8746
48.50	499.00	1.8754
48.48	497.00	1.8761
48.46	487.00	1.8768
48.44	493.00	1.8776
48.42	494.00	1.8783
48.40	506.00	1.8790
48.38	537.00	1.8797
48.36	540.00	1.8805
48.34	542.00	1.8812
48.32	523.00	1.8819
48.30	513.00	1.8827
48.28	508.00	1.8834
48.26	520.00	1.8841
48.24	505.00	1.8849
48.22	511.00	1.8856
48.20	501.00	1.8863
48.18	510.00	1.8871
48.16	505.00	1.8878
48.14	507.00	1.8886
48.12	502.00	1.8893
48.10	521.00	1.8900
48.08	516.00	1.8908
48.06	509.00	1.8915
48.04	512.00	1.8922
48.02	532.00	1.8930
48.00	514.00	1.8937
47.98	499.00	1.8945
47.96	511.00	1.8952
47.94	525.00	1.8960
47.92	532.00	1.8967
47.90	542.00	1.8975
47.88	560.00	1.8982
47.86	528.00	1.8989
47.84	526.00	1.8997
47.82	519.00	1.9004
47.80	531.00	1.9012
47.78	528.00	1.9019
47.76	486.00	1.9027
47.74	501.00	1.9034
47.72	517.00	1.9042
47.70	531.00	1.9049
47.68	538.00	1.9057
47.66	539.00	1.9064
47.64	534.00	1.9072
47.62	514.00	1.9080
47.60	508.00	1.9087
47.58	532.00	1.9095
47.56	519.00	1.9102
47.54	520.00	1.9110
47.52	542.00	1.9117
47.50	531.00	1.9125
47.48	535.00	1.9133
47.46	555.00	1.9140
47.44	541.00	1.9148
47.42	551.00	1.9155
47.40	535.00	1.9163
47.38	533.00	1.9171
47.36	500.00	1.9178
47.34	517.00	1.9186
47.32	543.00	1.9193
47.30	548.00	1.9201
47.28	548.00	1.9209
47.26	550.00	1.9216
47.24	565.00	1.9224
47.22	540.00	1.9232
47.20	531.00	1.9239
47.18	542.00	1.9247
47.16	528.00	1.9255
47.14	523.00	1.9263
47.12	514.00	1.9270
47.10	516.00	1.9278
47.08	529.00	1.9286
47.06	516.00	1.9293
47.04	518.00	1.9301
47.02	532.00	1.9309
47.00	541.00	1.9317
46.98	533.00	1.9324
46.96	524.00	1.9332
46.94	535.00	1.9340
46.92	541.00	1.9348
46.90	538.00	1.9356
46.88	537.00	1.9363
46.86	553.00	1.9371
46.84	574.00	1.9379
46.82	575.00	1.9387
46.80	557.00	1.9395
46.78	565.00	1.9402
46.76	545.00	1.9410
46.74	555.00	1.9418
46.72	535.00	1.9426
46.70	526.00	1.9434
46.68	535.00	1.9442
46.66	523.00	1.9449
46.64	521.00	1.9457
46.62	538.00	1.9465
46.60	538.00	1.9473
46.58	546.00	1.9481
46.56	538.00	1.9489
46.54	543.00	1.9497
46.52	569.00	1.9505
46.50	564.00	1.9513
46.48	560.00	1.9521
46.46	529.00	1.9529
46.44	545.00	1.9536
46.42	530.00	1.9544
46.40	551.00	1.9552
46.38	542.00	1.9560
46.36	548.00	1.9568
46.34	548.00	1.9576
46.32	537.00	1.9584
46.30	546.00	1.9592
46.28	555.00	1.9600
46.26	560.00	1.9608
46.24	572.00	1.9616
46.22	550.00	1.9624
46.20	581.00	1.9632
46.18	581.00	1.9640
46.16	552.00	1.9648
46.14	544.00	1.9656
46.12	526.00	1.9665
46.10	548.00	1.9673
46.08	566.00	1.9681
46.06	596.00	1.9689
46.04	569.00	1.9697
46.02	570.00	1.9705
46.00	543.00	1.9713
45.98	564.00	1.9721
45.96	555.00	1.9729
45.94	554.00	1.9737
45.92	530.00	1.9746
45.90	535.00	1.9754
45.88	554.00	1.9762
45.86	552.00	1.9770
45.84	557.00	1.9778
45.82	564.00	1.9786
45.80	555.00	1.9794
45.78	548.00	1.9803
45.76	565.00	1.9811
45.74	580.00	1.9819
45.72	573.00	1.9827
45.70	553.00	1.9835
45.68	542.00	1.9844
45.66	548.00	1.9852
45.64	536.00	1.9860
45.62	564.00	1.9868
45.60	561.00	1.9877
45.58	562.00	1.9885
45.56	556.00	1.9893
45.54	534.00	1.9901
45.52	561.00	1.9910
45.50	559.00	1.9918
45.48	545.00	1.9926
45.46	546.00	1.9935
45.44	556.00	1.9943
45.42	579.00	1.9951
45.40	576.00	1.9960
45.38	562.00	1.9968
45.36	565.00	1.9976
45.34	563.00	1.9985
45.32	554.00	1.9993
45.30	594.00	2.0001
45.28	591.00	2.0010
45.26	570.00	2.0018
45.24	582.00	2.0026
45.22	587.00	2.0035
45.20	586.00	2.0043
45.18	592.00	2.0052
45.16	587.00	2.0060
45.14	593.00	2.0068
45.12	600.00	2.0077
45.10	612.00	2.0085
45.08	594.00	2.0094
45.06	584.00	2.0102
45.04	598.00	2.0111
45.02	582.00	2.0119
45.00	578.00	2.0128
44.98	580.00	2.0136
44.96	585.00	2.0145
44.94	630.00	2.0153
44.92	609.00	2.0162
44.90	597.00	2.0170
44.88	603.00	2.0179
44.86	592.00	2.0187
44.84	580.00	2.0196
44.82	586.00	2.0204
44.80	602.00	2.0213
44.78	600.00	2.0221
44.76	616.00	2.0230
44.74	586.00	2.0239
44.72	602.00	2.0247
44.70	585.00	2.0256
44.68	575.00	2.0264
44.66	567.00	2.0273
44.64	585.00	2.0282
44.62	589.00	2.0290
44.60	585.00	2.0299
44.58	588.00	2.0307
44.56	588.00	2.0316
44.54	585.00	2.0325
44.52	568.00	2.0333
44.50	586.00	2.0342
44.48	597.00	2.0351
44.46	573.00	2.0359
44.44	573.00	2.0368
44.42	580.00	2.0377
44.40	593.00	2.0386
44.38	581.00	2.0394
44.36	584.00	2.0403
44.34	587.00	2.0412
44.32	577.00	2.0421
44.30	604.00	2.0429
44.28	601.00	2.0438
44.26	635.00	2.0447
44.24	619.00	2.0456
44.22	607.00	2.0464
44.20	603.00	2.0473
44.18	607.00	2.0482
44.16	599.00	2.0491
44.14	587.00	2.0500
44.12	578.00	2.0508
44.10	600.00	2.0517
44.08	617.00	2.0526
44.06	627.00	2.0535
44.04	647.00	2.0544
44.02	636.00	2.0553
44.00	591.00	2.0562
43.98	593.00	2.0570
43.96	589.00	2.0579
43.94	590.00	2.0588
43.92	586.00	2.0597
43.90	619.00	2.0606
43.88	600.00	2.0615
43.86	598.00	2.0624
43.84	604.00	2.0633
43.82	606.00	2.0642
43.80	577.00	2.0651
43.78	566.00	2.0660
43.76	573.00	2.0669
43.74	590.00	2.0678
43.72	584.00	2.0687
43.70	608.00	2.0696
43.68	631.00	2.0705
43.66	591.00	2.0714
43.64	609.00	2.0723
43.62	612.00	2.0732
43.60	597.00	2.0741
43.58	605.00	2.0750
43.56	591.00	2.0759
43.54	571.00	2.0768
43.52	599.00	2.0777
43.50	603.00	2.0786
43.48	582.00	2.0795
43.46	575.00	2.0804
43.44	567.00	2.0814
43.42	586.00	2.0823
43.40	590.00	2.0832
43.38	602.00	2.0841
43.36	606.00	2.0850
43.34	591.00	2.0859
43.32	601.00	2.0868
43.30	608.00	2.0878
43.28	589.00	2.0887
43.26	583.00	2.0896
43.24	574.00	2.0905
43.22	604.00	2.0914
43.20	620.00	2.0924
43.18	643.00	2.0933
43.16	614.00	2.0942
43.14	619.00	2.0951
43.12	632.00	2.0961
43.10	625.00	2.0970
43.08	637.00	2.0979
43.06	636.00	2.0988
43.04	627.00	2.0998
43.02	622.00	2.1007
43.00	613.00	2.1016
42.98	624.00	2.1026
42.96	622.00	2.1035
42.94	617.00	2.1044
42.92	616.00	2.1054
42.90	627.00	2.1063
42.88	623.00	2.1072
42.86	639.00	2.1082
42.84	647.00	2.1091
42.82	645.00	2.1100
42.80	643.00	2.1110
42.78	624.00	2.1119
42.76	633.00	2.1129
42.74	622.00	2.1138
42.72	620.00	2.1148
42.70	618.00	2.1157
42.68	616.00	2.1166
42.66	627.00	2.1176
42.64	634.00	2.1185
42.62	646.00	2.1195
42.60	655.00	2.1204
42.58	628.00	2.1214
42.56	603.00	2.1223
42.54	588.00	2.1233
42.52	602.00	2.1242
42.50	600.00	2.1252
42.48	620.00	2.1261
42.46	620.00	2.1271
42.44	654.00	2.1281
42.42	648.00	2.1290
42.40	639.00	2.1300
42.38	645.00	2.1309
42.36	662.00	2.1319
42.34	653.00	2.1329
42.32	666.00	2.1338
42.30	669.00	2.1348
42.28	636.00	2.1357
42.26	622.00	2.1367
42.24	617.00	2.1377
42.22	612.00	2.1386
42.20	621.00	2.1396
42.18	633.00	2.1406
42.16	647.00	2.1415
42.14	654.00	2.1425
42.12	657.00	2.1435
42.10	629.00	2.1445
42.08	626.00	2.1454
42.06	624.00	2.1464
42.04	626.00	2.1474
42.02	636.00	2.1484
42.00	633.00	2.1493
41.98	608.00	2.1503
41.96	617.00	2.1513
41.94	629.00	2.1523
41.92	640.00	2.1532
41.90	639.00	2.1542
41.88	647.00	2.1552
41.86	633.00	2.1562
41.84	642.00	2.1572
41.82	634.00	2.1582
41.80	605.00	2.1591
41.78	600.00	2.1601
41.76	607.00	2.1611
41.74	612.00	2.1621
41.72	635.00	2.1631
41.70	645.00	2.1641
41.68	636.00	2.1651
41.66	635.00	2.1661
41.64	638.00	2.1671
41.62	647.00	2.1681
41.60	642.00	2.1691
41.58	665.00	2.1701
41.56	673.00	2.1711
41.54	638.00	2.1721
41.52	628.00	2.1731
41.50	619.00	2.1741
41.48	644.00	2.1751
41.46	625.00	2.1761
41.44	610.00	2.1771
41.42	624.00	2.1781
41.40	639.00	2.1791
41.38	622.00	2.1801
41.36	627.00	2.1811
41.34	611.00	2.1821
41.32	610.00	2.1831
41.30	628.00	2.1841
41.28	615.00	2.1851
41.26	618.00	2.1862
41.24	611.00	2.1872
41.22	626.00	2.1882
41.20	628.00	2.1892
41.18	621.00	2.1902
41.16	647.00	2.1912
41.14	654.00	2.1922
41.12	661.00	2.1933
41.10	656.00	2.1943
41.08	654.00	2.1953
41.06	669.00	2.1963
41.04	664.00	2.1974
41.02	639.00	2.1984
41.00	631.00	2.1994
40.98	622.00	2.2004
40.96	628.00	2.2015
40.94	626.00	2.2025
40.92	638.00	2.2035
40.90	640.00	2.2046
40.88	655.00	2.2056
40.86	641.00	2.2066
40.84	639.00	2.2077
40.82	650.00	2.2087
40.80	650.00	2.2097
40.78	654.00	2.2108
40.76	638.00	2.2118
40.74	619.00	2.2128
40.72	602.00	2.2139
40.70	625.00	2.2149
40.68	622.00	2.2160
40.66	624.00	2.2170
40.64	623.00	2.2181
40.62	631.00	2.2191
40.60	614.00	2.2202
40.58	640.00	2.2212
40.56	639.00	2.2222
40.54	659.00	2.2233
40.52	645.00	2.2244
40.50	626.00	2.2254
40.48	632.00	2.2265
40.46	635.00	2.2275
40.44	617.00	2.2286
40.42	613.00	2.2296
40.40	610.00	2.2307
40.38	625.00	2.2317
40.36	639.00	2.2328
40.34	643.00	2.2339
40.32	636.00	2.2349
40.30	650.00	2.2360
40.28	645.00	2.2370
40.26	664.00	2.2381
40.24	661.00	2.2392
40.22	671.00	2.2402
40.20	668.00	2.2413
40.18	646.00	2.2424
40.16	650.00	2.2435
40.14	629.00	2.2445
40.12	640.00	2.2456
40.10	640.00	2.2467
40.08	661.00	2.2477
40.06	665.00	2.2488
40.04	655.00	2.2499
40.02	636.00	2.2510
40.00	657.00	2.2521
39.98	664.00	2.2531
39.96	675.00	2.2542
39.94	666.00	2.2553
39.92	675.00	2.2564
39.90	685.00	2.2575
39.88	657.00	2.2586
39.86	656.00	2.2596
39.84	643.00	2.2607
39.82	646.00	2.2618
39.80	662.00	2.2629
39.78	641.00	2.2640
39.76	610.00	2.2651
39.74	617.00	2.2662
39.72	634.00	2.2673
39.70	649.00	2.2684
39.68	656.00	2.2695
39.66	643.00	2.2706
39.64	660.00	2.2717
39.62	650.00	2.2728
39.60	655.00	2.2739
39.58	679.00	2.2750
39.56	694.00	2.2761
39.54	712.00	2.2772
39.52	713.00	2.2783
39.50	705.00	2.2794
39.48	690.00	2.2805
39.46	678.00	2.2816
39.44	692.00	2.2827
39.42	685.00	2.2838
39.40	672.00	2.2850
39.38	673.00	2.2861
39.36	670.00	2.2872
39.34	674.00	2.2883
39.32	669.00	2.2894
39.30	686.00	2.2905
39.28	662.00	2.2917
39.26	654.00	2.2928
39.24	673.00	2.2939
39.22	698.00	2.2950
39.20	686.00	2.2962
39.18	672.00	2.2973
39.16	666.00	2.2984
39.14	643.00	2.2995
39.12	657.00	2.3007
39.10	655.00	2.3018
39.08	676.00	2.3029
39.06	665.00	2.3041
39.04	663.00	2.3052
39.02	655.00	2.3063
39.00	654.00	2.3075
38.98	660.00	2.3086
38.96	665.00	2.3097
38.94	659.00	2.3109
38.92	652.00	2.3120
38.90	660.00	2.3132
38.88	649.00	2.3143
38.86	671.00	2.3155
38.84	665.00	2.3166
38.82	632.00	2.3178
38.80	617.00	2.3189
38.78	639.00	2.3201
38.76	637.00	2.3212
38.74	655.00	2.3224
38.72	662.00	2.3235
38.70	655.00	2.3247
38.68	644.00	2.3258
38.66	631.00	2.3270
38.64	633.00	2.3281
38.62	647.00	2.3293
38.60	651.00	2.3305
38.58	656.00	2.3316
38.56	661.00	2.3328
38.54	657.00	2.3339
38.52	668.00	2.3351
38.50	665.00	2.3363
38.48	657.00	2.3374
38.46	661.00	2.3386
38.44	653.00	2.3398
38.42	631.00	2.3410
38.40	663.00	2.3421
38.38	675.00	2.3433
38.36	649.00	2.3445
38.34	646.00	2.3457
38.32	659.00	2.3468
38.30	664.00	2.3480
38.28	677.00	2.3492
38.26	688.00	2.3504
38.24	671.00	2.3516
38.22	678.00	2.3528
38.20	718.00	2.3539
38.18	682.00	2.3551
38.16	667.00	2.3563
38.14	654.00	2.3575
38.12	651.00	2.3587
38.10	648.00	2.3599
38.08	632.00	2.3611
38.06	643.00	2.3623
38.04	648.00	2.3635
38.02	668.00	2.3647
38.00	644.00	2.3659
37.98	636.00	2.3671
37.96	647.00	2.3683
37.94	636.00	2.3695
37.92	672.00	2.3707
37.90	686.00	2.3719
37.88	679.00	2.3731
37.86	667.00	2.3743
37.84	646.00	2.3755
37.82	666.00	2.3767
37.80	674.00	2.3779
37.78	686.00	2.3791
37.76	695.00	2.3803
37.74	708.00	2.3816
37.72	700.00	2.3828
37.70	682.00	2.3840
37.68	681.00	2.3852
37.66	686.00	2.3864
37.64	705.00	2.3877
37.62	696.00	2.3889
37.60	692.00	2.3901
37.58	684.00	2.3913
37.56	670.00	2.3926
37.54	685.00	2.3938
37.52	671.00	2.3950
37.50	667.00	2.3963
37.48	682.00	2.3975
37.46	687.00	2.3987
37.44	680.00	2.4000
37.42	652.00	2.4012
37.40	638.00	2.4024
37.38	695.00	2.4037
37.36	696.00	2.4049
37.34	694.00	2.4062
37.32	670.00	2.4074
37.30	677.00	2.4086
37.28	677.00	2.4099
37.26	664.00	2.4111
37.24	670.00	2.4124
37.22	678.00	2.4136
37.20	683.00	2.4149
37.18	676.00	2.4161
37.16	670.00	2.4174
37.14	678.00	2.4186
37.12	687.00	2.4199
37.10	699.00	2.4212
37.08	671.00	2.4224
37.06	664.00	2.4237
37.04	653.00	2.4249
37.02	641.00	2.4262
37.00	643.00	2.4275
36.98	657.00	2.4287
36.96	655.00	2.4300
36.94	651.00	2.4313
36.92	662.00	2.4326
36.90	664.00	2.4338
36.88	633.00	2.4351
36.86	627.00	2.4364
36.84	655.00	2.4377
36.82	644.00	2.4389
36.80	652.00	2.4402
36.78	675.00	2.4415
36.76	674.00	2.4428
36.74	694.00	2.4441
36.72	685.00	2.4453
36.70	690.00	2.4466
36.68	670.00	2.4479
36.66	671.00	2.4492
36.64	674.00	2.4505
36.62	705.00	2.4518
36.60	677.00	2.4531
36.58	668.00	2.4544
36.56	660.00	2.4557
36.54	670.00	2.4570
36.52	674.00	2.4583
36.50	702.00	2.4596
36.48	687.00	2.4609
36.46	676.00	2.4622
36.44	672.00	2.4635
36.42	673.00	2.4648
36.40	651.00	2.4661
36.38	655.00	2.4674
36.36	661.00	2.4687
36.34	666.00	2.4700
36.32	653.00	2.4714
36.30	671.00	2.4727
36.28	671.00	2.4740
36.26	661.00	2.4753
36.24	665.00	2.4766
36.22	681.00	2.4779
36.20	668.00	2.4793
36.18	665.00	2.4806
36.16	675.00	2.4819
36.14	687.00	2.4832
36.12	705.00	2.4846
36.10	706.00	2.4859
36.08	703.00	2.4872
36.06	677.00	2.4886
36.04	702.00	2.4899
36.02	682.00	2.4912
36.00	655.00	2.4926
35.98	661.00	2.4939
35.96	688.00	2.4953
35.94	692.00	2.4966
35.92	680.00	2.4979
35.90	663.00	2.4993
35.88	683.00	2.5006
35.86	669.00	2.5020
35.84	667.00	2.5033
35.82	634.00	2.5047
35.80	634.00	2.5060
35.78	640.00	2.5074
35.76	645.00	2.5088
35.74	657.00	2.5101
35.72	656.00	2.5115
35.70	659.00	2.5128
35.68	669.00	2.5142
35.66	640.00	2.5156
35.64	653.00	2.5169
35.62	687.00	2.5183
35.60	695.00	2.5197
35.58	660.00	2.5210
35.56	679.00	2.5224
35.54	678.00	2.5238
35.52	679.00	2.5252
35.50	699.00	2.5265
35.48	680.00	2.5279
35.46	678.00	2.5293
35.44	687.00	2.5307
35.42	675.00	2.5321
35.40	674.00	2.5334
35.38	686.00	2.5348
35.36	669.00	2.5362
35.34	659.00	2.5376
35.32	666.00	2.5390
35.30	657.00	2.5404
35.28	680.00	2.5418
35.26	678.00	2.5432
35.24	685.00	2.5446
35.22	669.00	2.5460
35.20	673.00	2.5474
35.18	650.00	2.5488
35.16	641.00	2.5502
35.14	652.00	2.5516
35.12	675.00	2.5530
35.10	674.00	2.5544
35.08	655.00	2.5558
35.06	666.00	2.5572
35.04	666.00	2.5586
35.02	711.00	2.5601
35.00	695.00	2.5615
34.98	715.00	2.5629
34.96	693.00	2.5643
34.94	714.00	2.5657
34.92	729.00	2.5672
34.90	718.00	2.5686
34.88	725.00	2.5700
34.86	716.00	2.5714
34.84	719.00	2.5729
34.82	682.00	2.5743
34.80	673.00	2.5757
34.78	685.00	2.5772
34.76	677.00	2.5786
34.74	666.00	2.5800
34.72	691.00	2.5815
34.70	706.00	2.5829
34.68	678.00	2.5844
34.66	667.00	2.5858
34.64	655.00	2.5873
34.62	645.00	2.5887
34.60	659.00	2.5902
34.58	682.00	2.5916
34.56	678.00	2.5931
34.54	696.00	2.5945
34.52	695.00	2.5960
34.50	676.00	2.5974
34.48	697.00	2.5989
34.46	702.00	2.6004
34.44	697.00	2.6018
34.42	694.00	2.6033
34.40	680.00	2.6048
34.38	698.00	2.6062
34.36	685.00	2.6077
34.34	713.00	2.6092
34.32	707.00	2.6107
34.30	696.00	2.6121
34.28	684.00	2.6136
34.26	672.00	2.6151
34.24	674.00	2.6166
34.22	677.00	2.6181
34.20	693.00	2.6195
34.18	694.00	2.6210
34.16	694.00	2.6225
34.14	721.00	2.6240
34.12	714.00	2.6255
34.10	714.00	2.6270
34.08	718.00	2.6285
34.06	701.00	2.6300
34.04	705.00	2.6315
34.02	707.00	2.6330
34.00	717.00	2.6345
33.98	727.00	2.6360
33.96	708.00	2.6375
33.94	707.00	2.6390
33.92	717.00	2.6405
33.90	696.00	2.6420
33.88	696.00	2.6435
33.86	696.00	2.6451
33.84	681.00	2.6466
33.82	679.00	2.6481
33.80	705.00	2.6496
33.78	705.00	2.6511
33.76	696.00	2.6527
33.74	696.00	2.6542
33.72	710.00	2.6557
33.70	687.00	2.6573
33.68	698.00	2.6588
33.66	688.00	2.6603
33.64	710.00	2.6619
33.62	657.00	2.6634
33.60	651.00	2.6649
33.58	688.00	2.6665
33.56	676.00	2.6680
33.54	688.00	2.6696
33.52	709.00	2.6711
33.50	698.00	2.6727
33.48	667.00	2.6742
33.46	659.00	2.6758
33.44	679.00	2.6773
33.42	664.00	2.6789
33.40	692.00	2.6804
33.38	680.00	2.6820
33.36	704.00	2.6836
33.34	681.00	2.6851
33.32	714.00	2.6867
33.30	724.00	2.6883
33.28	714.00	2.6898
33.26	701.00	2.6914
33.24	684.00	2.6930
33.22	706.00	2.6945
33.20	707.00	2.6961
33.18	664.00	2.6977
33.16	670.00	2.6993
33.14	677.00	2.7009
33.12	694.00	2.7024
33.10	676.00	2.7040
33.08	658.00	2.7056
33.06	663.00	2.7072
33.04	688.00	2.7088
33.02	716.00	2.7104
33.00	715.00	2.7120
32.98	699.00	2.7136
32.96	697.00	2.7152
32.94	697.00	2.7168
32.92	687.00	2.7184
32.90	685.00	2.7200
32.88	699.00	2.7216
32.86	702.00	2.7232
32.84	704.00	2.7248
32.82	714.00	2.7265
32.80	710.00	2.7281
32.78	683.00	2.7297
32.76	688.00	2.7313
32.74	697.00	2.7329
32.72	719.00	2.7346
32.70	712.00	2.7362
32.68	714.00	2.7378
32.66	716.00	2.7395
32.64	729.00	2.7411
32.62	707.00	2.7427
32.60	720.00	2.7444
32.58	712.00	2.7460
32.56	709.00	2.7476
32.54	694.00	2.7493
32.52	699.00	2.7509
32.50	697.00	2.7526
32.48	698.00	2.7542
32.46	691.00	2.7559
32.44	699.00	2.7575
32.42	727.00	2.7592
32.40	687.00	2.7608
32.38	698.00	2.7625
32.36	702.00	2.7642
32.34	697.00	2.7658
32.32	679.00	2.7675
32.30	689.00	2.7692
32.28	720.00	2.7708
32.26	727.00	2.7725
32.24	707.00	2.7742
32.22	727.00	2.7759
32.20	716.00	2.7775
32.18	694.00	2.7792
32.16	692.00	2.7809
32.14	707.00	2.7826
32.12	718.00	2.7843
32.10	706.00	2.7860
32.08	717.00	2.7876
32.06	719.00	2.7893
32.04	713.00	2.7910
32.02	674.00	2.7927
32.00	697.00	2.7944
31.98	663.00	2.7961
31.96	671.00	2.7978
31.94	699.00	2.7995
31.92	688.00	2.8013
31.90	698.00	2.8030
31.88	707.00	2.8047
31.86	724.00	2.8064
31.84	692.00	2.8081
31.82	719.00	2.8098
31.80	718.00	2.8115
31.78	746.00	2.8133
31.76	765.00	2.8150
31.74	740.00	2.8167
31.72	737.00	2.8185
31.70	733.00	2.8202
31.68	718.00	2.8219
31.66	697.00	2.8237
31.64	715.00	2.8254
31.62	736.00	2.8271
31.60	727.00	2.8289
31.58	720.00	2.8306
31.56	740.00	2.8324
31.54	763.00	2.8341
31.52	771.00	2.8359
31.50	777.00	2.8376
31.48	753.00	2.8394
31.46	754.00	2.8412
31.44	716.00	2.8429
31.42	716.00	2.8447
31.40	708.00	2.8464
31.38	719.00	2.8482
31.36	716.00	2.8500
31.34	743.00	2.8518
31.32	764.00	2.8535
31.30	772.00	2.8553
31.28	752.00	2.8571
31.26	728.00	2.8589
31.24	727.00	2.8607
31.22	747.00	2.8624
31.20	741.00	2.8642
31.18	733.00	2.8660
31.16	744.00	2.8678
31.14	731.00	2.8696
31.12	763.00	2.8714
31.10	758.00	2.8732
31.08	739.00	2.8750
31.06	758.00	2.8768
31.04	736.00	2.8786
31.02	742.00	2.8804
31.00	739.00	2.8823
30.98	716.00	2.8841
30.96	717.00	2.8859
30.94	748.00	2.8877
30.92	730.00	2.8895
30.90	731.00	2.8914
30.88	741.00	2.8932
30.86	739.00	2.8950
30.84	713.00	2.8968
30.82	717.00	2.8987
30.80	735.00	2.9005
30.78	749.00	2.9024
30.76	768.00	2.9042
30.74	740.00	2.9060
30.72	758.00	2.9079
30.70	768.00	2.9097
30.68	748.00	2.9116
30.66	749.00	2.9134
30.64	762.00	2.9153
30.62	771.00	2.9172
30.60	760.00	2.9190
30.58	777.00	2.9209
30.56	769.00	2.9227
30.54	760.00	2.9246
30.52	763.00	2.9265
30.50	763.00	2.9284
30.48	746.00	2.9302
30.46	737.00	2.9321
30.44	755.00	2.9340
30.42	744.00	2.9359
30.40	740.00	2.9378
30.38	755.00	2.9397
30.36	774.00	2.9415
30.34	783.00	2.9434
30.32	792.00	2.9453
30.30	785.00	2.9472
30.28	772.00	2.9491
30.26	785.00	2.9510
30.24	787.00	2.9529
30.22	786.00	2.9549
30.20	765.00	2.9568
30.18	758.00	2.9587
30.16	785.00	2.9606
30.14	785.00	2.9625
30.12	783.00	2.9644
30.10	759.00	2.9664
30.08	741.00	2.9683
30.06	753.00	2.9702
30.04	772.00	2.9721
30.02	771.00	2.9741
30.00	776.00	2.9760
29.98	763.00	2.9780
29.96	767.00	2.9799
29.94	778.00	2.9818
29.92	778.00	2.9838
29.90	799.00	2.9857
29.88	803.00	2.9877
29.86	817.00	2.9897
29.84	805.00	2.9916
29.82	799.00	2.9936
29.80	808.00	2.9955
29.78	802.00	2.9975
29.76	790.00	2.9995
29.74	764.00	3.0014
29.72	743.00	3.0034
29.70	746.00	3.0054
29.68	751.00	3.0074
29.66	783.00	3.0094
29.64	787.00	3.0113
29.62	773.00	3.0133
29.60	780.00	3.0153
29.58	790.00	3.0173
29.56	784.00	3.0193
29.54	768.00	3.0213
29.52	787.00	3.0233
29.50	808.00	3.0253
29.48	808.00	3.0273
29.46	816.00	3.0293
29.44	808.00	3.0313
29.42	833.00	3.0334
29.40	840.00	3.0354
29.38	848.00	3.0374
29.36	829.00	3.0394
29.34	814.00	3.0414
29.32	789.00	3.0435
29.30	776.00	3.0455
29.28	796.00	3.0475
29.26	807.00	3.0496
29.24	807.00	3.0516
29.22	786.00	3.0537
29.20	836.00	3.0557
29.18	841.00	3.0578
29.16	814.00	3.0598
29.14	817.00	3.0619
29.12	816.00	3.0639
29.10	816.00	3.0660
29.08	795.00	3.0680
29.06	829.00	3.0701
29.04	818.00	3.0722
29.02	808.00	3.0742
29.00	826.00	3.0763
28.98	804.00	3.0784
28.96	808.00	3.0805
28.94	814.00	3.0826
28.92	818.00	3.0847
28.90	799.00	3.0867
28.88	821.00	3.0888
28.86	803.00	3.0909
28.84	809.00	3.0930
28.82	811.00	3.0951
28.80	819.00	3.0972
28.78	847.00	3.0993
28.76	874.00	3.1014
28.74	831.00	3.1036
28.72	823.00	3.1057
28.70	825.00	3.1078
28.68	819.00	3.1099
28.66	816.00	3.1120
28.64	804.00	3.1142
28.62	831.00	3.1163
28.60	826.00	3.1184
28.58	794.00	3.1206
28.56	812.00	3.1227
28.54	800.00	3.1249
28.52	848.00	3.1270
28.50	818.00	3.1291
28.48	821.00	3.1313
28.46	841.00	3.1335
28.44	855.00	3.1356
28.42	821.00	3.1378
28.40	837.00	3.1399
28.38	857.00	3.1421
28.36	840.00	3.1443
28.34	852.00	3.1464
28.32	858.00	3.1486
28.30	860.00	3.1508
28.28	893.00	3.1530
28.26	857.00	3.1552
28.24	843.00	3.1574
28.22	877.00	3.1596
28.20	861.00	3.1618
28.18	862.00	3.1639
28.16	848.00	3.1662
28.14	819.00	3.1684
28.12	832.00	3.1706
28.10	838.00	3.1728
28.08	828.00	3.1750
28.06	833.00	3.1772
28.04	825.00	3.1794
28.02	875.00	3.1817
28.00	869.00	3.1839
27.98	856.00	3.1861
27.96	856.00	3.1883
27.94	855.00	3.1906
27.92	862.00	3.1928
27.90	866.00	3.1951
27.88	881.00	3.1973
27.86	862.00	3.1996
27.84	894.00	3.2018
27.82	875.00	3.2041
27.80	875.00	3.2063
27.78	855.00	3.2086
27.76	877.00	3.2109
27.74	885.00	3.2131
27.72	893.00	3.2154
27.70	904.00	3.2177
27.68	887.00	3.2200
27.66	906.00	3.2222
27.64	907.00	3.2245
27.62	900.00	3.2268
27.60	895.00	3.2291
27.58	911.00	3.2314
27.56	891.00	3.2337
27.54	888.00	3.2360
27.52	894.00	3.2383
27.50	868.00	3.2406
27.48	856.00	3.2429
27.46	851.00	3.2453
27.44	873.00	3.2476
27.42	887.00	3.2499
27.40	869.00	3.2522
27.38	878.00	3.2546
27.36	917.00	3.2569
27.34	925.00	3.2592
27.32	895.00	3.2616
27.30	849.00	3.2639
27.28	859.00	3.2663
27.26	911.00	3.2686
27.24	905.00	3.2710
27.22	928.00	3.2733
27.20	899.00	3.2757
27.18	888.00	3.2780
27.16	897.00	3.2804
27.14	903.00	3.2828
27.12	907.00	3.2852
27.10	908.00	3.2875
27.08	905.00	3.2899
27.06	924.00	3.2923
27.04	941.00	3.2947
27.02	921.00	3.2971
27.00	898.00	3.2995
26.98	898.00	3.3019
26.96	932.00	3.3043
26.94	925.00	3.3067
26.92	928.00	3.3091
26.90	963.00	3.3115
26.88	935.00	3.3139
26.86	943.00	3.3164
26.84	965.00	3.3188
26.82	935.00	3.3212
26.80	957.00	3.3237
26.78	970.00	3.3261
26.76	931.00	3.3285
26.74	929.00	3.3310
26.72	947.00	3.3334
26.70	943.00	3.3359
26.68	924.00	3.3383
26.66	935.00	3.3408
26.64	957.00	3.3433
26.62	971.00	3.3457
26.60	949.00	3.3482
26.58	963.00	3.3507
26.56	1002.00	3.3531
26.54	995.00	3.3556
26.52	984.00	3.3581
26.50	1023.00	3.3606
26.48	1005.00	3.3631
26.46	966.00	3.3656
26.44	977.00	3.3681
26.42	968.00	3.3706
26.40	990.00	3.3731
26.38	993.00	3.3756
26.36	986.00	3.3781
26.34	1021.00	3.3806
26.32	989.00	3.3832
26.30	982.00	3.3857
26.28	1002.00	3.3882
26.26	986.00	3.3908
26.24	1014.00	3.3933
26.22	1018.00	3.3958
26.20	1014.00	3.3984
26.18	988.00	3.4009
26.16	950.00	3.4035
26.14	967.00	3.4061
26.12	995.00	3.4086
26.10	982.00	3.4112
26.08	1016.00	3.4138
26.06	1017.00	3.4163
26.04	1013.00	3.4189
26.02	1013.00	3.4215
26.00	1023.00	3.4241
25.98	1017.00	3.4267
25.96	1011.00	3.4293
25.94	1007.00	3.4319
25.92	1005.00	3.4345
25.90	1012.00	3.4371
25.88	1023.00	3.4397
25.86	1023.00	3.4423
25.84	1019.00	3.4449
25.82	992.00	3.4475
25.80	984.00	3.4502
25.78	1016.00	3.4528
25.76	998.00	3.4554
25.74	997.00	3.4581
25.72	1004.00	3.4607
25.70	1022.00	3.4634
25.68	996.00	3.4660
25.66	991.00	3.4687
25.64	1023.00	3.4713
25.62	1023.00	3.4740
25.60	1023.00	3.4767
25.58	1023.00	3.4793
25.56	1023.00	3.4820
25.54	1023.00	3.4847
25.52	1023.00	3.4874
25.50	1023.00	3.4901
25.48	1023.00	3.4928
25.46	1023.00	3.4955
25.44	1023.00	3.4982
25.42	1023.00	3.5009
25.40	1023.00	3.5036
25.38	1023.00	3.5063
25.36	1023.00	3.5090
25.34	1023.00	3.5117
25.32	1023.00	3.5145
25.30	1023.00	3.5172
25.28	1023.00	3.5199
25.26	1023.00	3.5227
25.24	1023.00	3.5254
25.22	1023.00	3.5282
25.20	1023.00	3.5309
25.18	1023.00	3.5337
25.16	1023.00	3.5365
25.14	1023.00	3.5392
25.12	1023.00	3.5420
25.10	1023.00	3.5448
25.08	1023.00	3.5476
25.06	1023.00	3.5503
25.04	1023.00	3.5531
25.02	1023.00	3.5559
25.00	1023.00	3.5587
24.98	1023.00	3.5615
24.96	1023.00	3.5643
24.94	1023.00	3.5672
24.92	1023.00	3.5700
24.90	1023.00	3.5728
24.88	1023.00	3.5756
24.86	1023.00	3.5785
24.84	1023.00	3.5813
24.82	1023.00	3.5841
24.80	1023.00	3.5870
24.78	1023.00	3.5898
24.76	1023.00	3.5927
24.74	1023.00	3.5955
24.72	1023.00	3.5984
24.70	1023.00	3.6013
24.68	1023.00	3.6041
24.66	1023.00	3.6070
24.64	1023.00	3.6099
24.62	1023.00	3.6128
24.60	1023.00	3.6157
24.58	1023.00	3.6186
24.56	1023.00	3.6215
24.54	1023.00	3.6244
24.52	1023.00	3.6273
24.50	1023.00	3.6302
24.48	1023.00	3.6331
24.46	1023.00	3.6361
24.44	1023.00	3.6390
24.42	1023.00	3.6419
24.40	1023.00	3.6449
24.38	1023.00	3.6478
24.36	1023.00	3.6508
24.34	1023.00	3.6537
24.32	1023.00	3.6567
24.30	1023.00	3.6596
24.28	1023.00	3.6626
24.26	1023.00	3.6656
24.24	1023.00	3.6686
24.22	1023.00	3.6715
24.20	1023.00	3.6745
24.18	1023.00	3.6775
24.16	1023.00	3.6805
24.14	1023.00	3.6835
24.12	1023.00	3.6865
24.10	1023.00	3.6896
24.08	1023.00	3.6926
24.06	1023.00	3.6956
24.04	1023.00	3.6986
24.02	1023.00	3.7017
24.00	1023.00	3.7047
23.98	1023.00	3.7077
23.96	1023.00	3.7108
23.94	1023.00	3.7138
23.92	1023.00	3.7169
23.90	1023.00	3.7200
23.88	1023.00	3.7230
23.86	1023.00	3.7261
23.84	1023.00	3.7292
23.82	1023.00	3.7323
23.80	1023.00	3.7354
23.78	1023.00	3.7385
23.76	1023.00	3.7416
23.74	1023.00	3.7447
23.72	1023.00	3.7478
23.70	1023.00	3.7509
23.68	1023.00	3.7540
23.66	1023.00	3.7572
23.64	1023.00	3.7603
23.62	1023.00	3.7634
23.60	1023.00	3.7666
23.58	1023.00	3.7697
23.56	1023.00	3.7729
23.54	1023.00	3.7760
23.52	1023.00	3.7792
23.50	1023.00	3.7824
23.48	1023.00	3.7856
23.46	1023.00	3.7887
23.44	1023.00	3.7919
23.42	1023.00	3.7951
23.40	1023.00	3.7983
23.38	1023.00	3.8015
23.36	1023.00	3.8047
23.34	1023.00	3.8079
23.32	1023.00	3.8112
23.30	1023.00	3.8144
23.28	1023.00	3.8176
23.26	1023.00	3.8209
23.24	1023.00	3.8241
23.22	1023.00	3.8274
23.20	1023.00	3.8306
23.18	1023.00	3.8339
